# Density autocorrelation tracking
# Output period: 1000 steps
# Reference interval: 294449 steps
# kmag = 1.0, num_wavevectors = 50
# t0_step t0(ps) t_step t(ps) F(k,t)
588900 708.415428 589000 708.538199 1.878528
588900 708.415428 590000 709.713692 1.763291
588900 708.415428 591000 710.859226 1.807533
588900 708.415428 592000 712.073976 1.700608
588900 708.415428 593000 713.231967 1.858043
588900 708.415428 594000 714.398710 1.772806
588900 708.415428 595000 715.533505 1.786726
588900 708.415428 596000 716.668503 1.814279
588900 708.415428 597000 717.861907 1.689649
588900 708.415428 598000 719.082213 1.770898
588900 708.415428 599000 720.267597 1.773801
588900 708.415428 600000 721.447986 1.846655
588900 708.415428 601000 722.639000 1.777510
588900 708.415428 602000 723.788793 1.752736
588900 708.415428 603000 724.973504 1.754349
588900 708.415428 604000 726.113365 1.723933
588900 708.415428 605000 727.287526 1.853691
588900 708.415428 606000 728.461308 1.782079
588900 708.415428 607000 729.621403 1.715032
588900 708.415428 608000 730.764984 1.736290
588900 708.415428 609000 731.932592 1.740244
588900 708.415428 610000 733.107647 1.768172
588900 708.415428 611000 734.274909 1.722941
588900 708.415428 612000 735.442144 1.778963
588900 708.415428 613000 736.615548 1.719867
588900 708.415428 614000 737.759685 1.737674
588900 708.415428 615000 738.926728 1.757642
588900 708.415428 616000 740.080160 1.849013
588900 708.415428 617000 741.240772 1.596097
588900 708.415428 618000 742.406561 1.792577
588900 708.415428 619000 743.599016 1.803275
588900 708.415428 620000 744.797405 1.744083
588900 708.415428 621000 745.987013 1.656878
588900 708.415428 622000 747.176125 1.619918
588900 708.415428 623000 748.366292 1.746812
588900 708.415428 624000 749.553604 1.673818
588900 708.415428 625000 750.752528 1.585691
588900 708.415428 626000 751.956825 1.652978
588900 708.415428 627000 753.162403 1.694779
588900 708.415428 628000 754.351017 1.594078
588900 708.415428 629000 755.535877 1.681544
588900 708.415428 630000 756.724806 1.737318
588900 708.415428 631000 757.926112 1.797870
588900 708.415428 632000 759.110690 1.736488
588900 708.415428 633000 760.318462 1.652143
588900 708.415428 634000 761.521880 1.623001
588900 708.415428 635000 762.719188 1.686773
588900 708.415428 636000 763.917366 1.678350
588900 708.415428 637000 765.081707 1.685704
588900 708.415428 638000 766.267419 1.737555
588900 708.415428 639000 767.466741 1.685424
588900 708.415428 640000 768.661042 1.691876
588900 708.415428 641000 769.848409 1.682460
588900 708.415428 642000 771.025734 1.782159
588900 708.415428 643000 772.224712 1.720816
588900 708.415428 644000 773.414471 1.827696
588900 708.415428 645000 774.600015 1.727935
588900 708.415428 646000 775.790496 1.683771
588900 708.415428 647000 776.969821 1.652342
588900 708.415428 648000 778.142125 1.902384
588900 708.415428 649000 779.330029 1.849991
588900 708.415428 650000 780.520688 1.821717
588900 708.415428 651000 781.706358 1.779340
588900 708.415428 652000 782.895244 1.749178
588900 708.415428 653000 784.080573 1.815609
588900 708.415428 654000 785.270570 1.743985
588900 708.415428 655000 786.456230 1.776478
588900 708.415428 656000 787.636558 1.732737
588900 708.415428 657000 788.807030 1.737646
588900 708.415428 658000 789.982186 1.641046
588900 708.415428 659000 791.162467 1.763326
588900 708.415428 660000 792.343881 1.810060
588900 708.415428 661000 793.521184 1.650342
588900 708.415428 662000 794.701901 1.631887
588900 708.415428 663000 795.873894 1.650666
588900 708.415428 664000 797.045302 1.634946
588900 708.415428 665000 798.218595 1.685486
588900 708.415428 666000 799.373834 1.643373
588900 708.415428 667000 800.516713 1.598846
588900 708.415428 668000 801.649901 1.653115
588900 708.415428 669000 802.784031 1.557311
588900 708.415428 670000 803.920270 1.590837
588900 708.415428 671000 805.063568 1.635051
588900 708.415428 672000 806.211469 1.632017
588900 708.415428 673000 807.350646 1.605237
588900 708.415428 674000 808.541436 1.612527
588900 708.415428 675000 809.712407 1.678322
588900 708.415428 676000 810.885583 1.567147
588900 708.415428 677000 812.046801 1.440521
588900 708.415428 678000 813.214676 1.594238
588900 708.415428 679000 814.383703 1.567258
588900 708.415428 680000 815.553122 1.593117
588900 708.415428 681000 816.737648 1.561595
588900 708.415428 682000 817.934632 1.601180
588900 708.415428 683000 819.101928 1.662450
588900 708.415428 684000 820.244395 1.541075
588900 708.415428 685000 821.409438 1.634348
588900 708.415428 686000 822.556789 1.675377
588900 708.415428 687000 823.736133 1.640132
588900 708.415428 688000 824.911798 1.750684
588900 708.415428 689000 826.065571 1.707593
588900 708.415428 690000 827.246204 1.616619
588900 708.415428 691000 828.443398 1.688325
588900 708.415428 692000 829.615167 1.615367
588900 708.415428 693000 830.779671 1.690773
588900 708.415428 694000 831.970816 1.577228
588900 708.415428 695000 833.145224 1.625759
588900 708.415428 696000 834.368364 1.726899
588900 708.415428 697000 835.522810 1.643259
588900 708.415428 698000 836.697256 1.666987
588900 708.415428 699000 837.876260 1.736515
588900 708.415428 700000 839.049695 1.577797
588900 708.415428 701000 840.249105 1.644247
588900 708.415428 702000 841.430344 1.609133
588900 708.415428 703000 842.618727 1.727501
588900 708.415428 704000 843.835317 1.639853
588900 708.415428 705000 845.005077 1.647696
588900 708.415428 706000 846.251095 1.606843
588900 708.415428 707000 847.502074 1.756512
588900 708.415428 708000 848.685688 1.733586
588900 708.415428 709000 849.877722 1.752937
588900 708.415428 710000 851.027348 1.693654
588900 708.415428 711000 852.257057 1.642379
588900 708.415428 712000 853.454741 1.715863
588900 708.415428 713000 854.626188 1.509491
588900 708.415428 714000 855.782846 1.670202
588900 708.415428 715000 856.947594 1.684187
588900 708.415428 716000 858.116979 1.748906
588900 708.415428 717000 859.294822 1.792786
588900 708.415428 718000 860.470035 1.703951
588900 708.415428 719000 861.619767 1.670789
588900 708.415428 720000 862.775170 1.757211
588900 708.415428 721000 863.960380 1.694006
588900 708.415428 722000 865.131138 1.634622
588900 708.415428 723000 866.306423 1.658842
588900 708.415428 724000 867.483073 1.682924
588900 708.415428 725000 868.652664 1.673559
588900 708.415428 726000 869.852013 1.629673
588900 708.415428 727000 871.043120 1.730023
588900 708.415428 728000 872.242264 1.576096
588900 708.415428 729000 873.414558 1.658478
588900 708.415428 730000 874.592393 1.659013
588900 708.415428 731000 875.777706 1.652628
588900 708.415428 732000 876.942195 1.612520
588900 708.415428 733000 878.076633 1.572536
588900 708.415428 734000 879.212611 1.642233
588900 708.415428 735000 880.370113 1.696789
588900 708.415428 736000 881.546034 1.606705
588900 708.415428 737000 882.733612 1.655195
588900 708.415428 738000 883.870428 1.636786
588900 708.415428 739000 885.038978 1.528522
588900 708.415428 740000 886.185866 1.627995
588900 708.415428 741000 887.373835 1.576187
588900 708.415428 742000 888.542109 1.714813
588900 708.415428 743000 889.703932 1.590725
588900 708.415428 744000 890.861320 1.510900
588900 708.415428 745000 892.022596 1.693025
588900 708.415428 746000 893.177844 1.706824
588900 708.415428 747000 894.333452 1.699260
588900 708.415428 748000 895.488675 1.667296
588900 708.415428 749000 896.654140 1.646491
588900 708.415428 750000 897.829626 1.699865
588900 708.415428 751000 898.997300 1.754446
588900 708.415428 752000 900.148810 1.668833
588900 708.415428 753000 901.319872 1.686655
588900 708.415428 754000 902.492330 1.742430
588900 708.415428 755000 903.656634 1.743862
588900 708.415428 756000 904.854510 1.583094
588900 708.415428 757000 906.039134 1.671220
588900 708.415428 758000 907.216812 1.713621
588900 708.415428 759000 908.388698 1.755431
588900 708.415428 760000 909.574414 1.651483
588900 708.415428 761000 910.760086 1.697687
588900 708.415428 762000 911.949385 1.810094
588900 708.415428 763000 913.124555 1.594108
588900 708.415428 764000 914.303177 1.652628
588900 708.415428 765000 915.481029 1.676288
588900 708.415428 766000 916.685364 1.762682
588900 708.415428 767000 917.854713 1.630846
588900 708.415428 768000 919.027696 1.677446
588900 708.415428 769000 920.162809 1.801006
588900 708.415428 770000 921.315394 1.703036
588900 708.415428 771000 922.483912 1.718053
588900 708.415428 772000 923.656119 1.730337
588900 708.415428 773000 924.835507 1.727830
588900 708.415428 774000 926.023127 1.645852
588900 708.415428 775000 927.212474 1.681125
588900 708.415428 776000 928.394851 1.636704
588900 708.415428 777000 929.585556 1.665029
588900 708.415428 778000 930.756960 1.565682
588900 708.415428 779000 931.934094 1.743872
588900 708.415428 780000 933.113037 1.636532
588900 708.415428 781000 934.302221 1.719626
588900 708.415428 782000 935.509628 1.606310
588900 708.415428 783000 936.712205 1.692369
588900 708.415428 784000 937.909390 1.696109
588900 708.415428 785000 939.107924 1.714680
588900 708.415428 786000 940.297157 1.625106
588900 708.415428 787000 941.490094 1.607765
588900 708.415428 788000 942.672388 1.621192
588900 708.415428 789000 943.857447 1.688540
588900 708.415428 790000 945.052519 1.635743
588900 708.415428 791000 946.247613 1.568806
588900 708.415428 792000 947.431072 1.677216
588900 708.415428 793000 948.627786 1.662069
588900 708.415428 794000 949.793247 1.727260
588900 708.415428 795000 950.946306 1.708995
588900 708.415428 796000 952.101215 1.696028
588900 708.415428 797000 953.249263 1.600772
588900 708.415428 798000 954.418665 1.642488
588900 708.415428 799000 955.580356 1.533661
588900 708.415428 800000 956.733504 1.598193
588900 708.415428 801000 957.897763 1.761452
588900 708.415428 802000 959.082788 1.692995
588900 708.415428 803000 960.299708 1.702167
588900 708.415428 804000 961.494033 1.759132
588900 708.415428 805000 962.679309 1.611814
588900 708.415428 806000 963.835605 1.664400
588900 708.415428 807000 964.989664 1.704265
588900 708.415428 808000 966.160922 1.726395
588900 708.415428 809000 967.360260 1.710711
588900 708.415428 810000 968.519739 1.624252
588900 708.415428 811000 969.672881 1.678645
588900 708.415428 812000 970.829103 1.719687
588900 708.415428 813000 971.971379 1.682143
588900 708.415428 814000 973.130945 1.625850
588900 708.415428 815000 974.326386 1.684165
588900 708.415428 816000 975.527629 1.610368
588900 708.415428 817000 976.699137 1.676558
588900 708.415428 818000 977.878219 1.657517
588900 708.415428 819000 979.075886 1.682770
588900 708.415428 820000 980.259970 1.672639
588900 708.415428 821000 981.444036 1.641534
588900 708.415428 822000 982.619789 1.549185
588900 708.415428 823000 983.789782 1.708130
588900 708.415428 824000 984.953930 1.610660
588900 708.415428 825000 986.136651 1.708515
588900 708.415428 826000 987.274982 1.606918
588900 708.415428 827000 988.462765 1.709174
588900 708.415428 828000 989.640337 1.733157
588900 708.415428 829000 990.826327 1.615831
588900 708.415428 830000 991.996528 1.749845
588900 708.415428 831000 993.172674 1.751897
588900 708.415428 832000 994.359879 1.595982
588900 708.415428 833000 995.545000 1.721509
588900 708.415428 834000 996.732086 1.635145
588900 708.415428 835000 997.924661 1.652661
588900 708.415428 836000 999.108371 1.567187
